Absorption cross sections for cyclopentanone measured in cyclohexane by
Nakashima et al., Bull Chem Soc Jpn: 55(2), 145-149 (1982).
as digitized from Figure IX-E-1, p. 1144
in the book of Calvert et al. (2011):
The Mechanisms of Atmospheric Oxidation of the Oxygenates,
Oxford University Press, 2011.

λ / nm	σ / 1E-20 cm-2
233.071	0.235518
234.404	0.250712
235.471	0.288699
238.141	0.463438
239.208	0.509022
240.409	0.547009
241.477	0.592593
242.411	0.645774
243.478	0.698955
244.412	0.744539
245.347	0.805318
246.414	0.843305
247.348	0.904084
248.149	0.964862
248.817	1.02564
249.485	1.09402
250.153	1.16239
250.821	1.23077
251.355	1.29915
252.023	1.35992
252.557	1.4283
253.358	1.49668
254.292	1.54986
255.227	1.60304
255.894	1.66382
256.562	1.73219
256.963	1.80057
257.365	1.87654
257.766	1.94492
258.167	2.02089
258.568	2.09687
258.969	2.16524
259.371	2.24122
260.038	2.30959
260.973	2.35518
262.04	2.40076
262.841	2.45394
263.375	2.52991
263.777	2.59829
264.045	2.67426
264.313	2.75024
264.58	2.82621
264.848	2.90218
265.116	2.97056
265.384	3.04653
265.652	3.12251
265.92	3.19848
266.321	3.26686
266.589	3.34283
266.99	3.4188
267.391	3.48718
267.926	3.55556
268.727	3.62393
269.528	3.67711
270.329	3.73789
270.863	3.80627
271.398	3.87464
271.933	3.95062
272.334	4.01899
272.735	4.09497
273.136	4.16334
273.537	4.23932
273.938	4.30769
274.206	4.38367
274.608	4.45964
275.009	4.52802
275.41	4.60399
275.811	4.67996
276.079	4.74834
276.48	4.82431
276.882	4.89269
277.283	4.96866
277.684	5.03704
278.085	5.11301
278.753	5.18139
279.421	5.24217
280.354	5.21937
280.886	5.151
281.687	5.19658
282.088	5.26496
282.356	5.34093
282.757	5.40931
283.025	5.48528
283.426	5.56125
283.694	5.62963
284.095	5.7056
284.363	5.78158
284.764	5.85755
285.032	5.92593
285.433	6.0019
285.701	6.07787
286.102	6.14625
286.771	6.26781
287.306	6.33618
287.707	6.41216
288.241	6.48053
289.575	6.47293
289.707	6.39696
289.839	6.32099
290.104	6.24501
290.236	6.16904
290.502	6.10066
290.767	6.02469
291.299	5.94872
291.831	5.88794
292.499	5.95632
293.165	5.88794
293.965	5.88794
294.633	5.9867
294.901	6.06268
295.302	6.13105
295.57	6.20703
295.971	6.283
296.239	6.35897
296.64	6.42735
296.908	6.50332
297.176	6.5793
297.444	6.64767
297.712	6.72365
298.113	6.79962
298.381	6.87559
298.649	6.95157
299.183	6.96676
299.582	6.89079
299.847	6.81481
299.979	6.73884
300.245	6.67047
300.51	6.59449
300.642	6.51852
300.907	6.44255
301.039	6.36657
301.305	6.2906
301.437	6.21462
301.702	6.13865
301.835	6.07028
302.1	5.9943
302.895	5.67521
303.027	5.59924
303.292	5.52327
303.424	5.44729
303.69	5.37132
303.822	5.30294
304.087	5.22697
304.219	5.151
304.485	5.07502
304.617	4.99905
304.882	4.92308
305.147	4.8471
305.546	4.77873
306.345	4.71795
307.546	4.74834
307.947	4.81671
308.215	4.89269
308.483	4.96866
308.617	5.03704
308.752	5.11301
308.886	5.18898
309.154	5.26496
309.289	5.34093
309.557	5.4169
309.825	5.49288
310.093	5.56125
310.627	5.63723
311.294	5.63723
311.693	5.56885
311.825	5.49288
312.089	5.34093
312.09	5.4169
312.221	5.26496
312.353	5.18898
312.485	5.11301
312.616	4.96106
312.617	5.03704
312.747	4.80912
312.748	4.88509
312.876	4.5812
312.878	4.65717
312.879	4.73314
313.007	4.42925
313.008	4.50522
313.138	4.2773
313.139	4.35328
313.269	4.12536
313.27	4.20133
313.4	3.97341
313.401	4.04938
313.53	3.82146
313.532	3.89744
313.661	3.66952
313.662	3.74549
313.792	3.51757
313.793	3.59354
313.923	3.36562
313.924	3.4416
314.054	3.21368
314.055	3.28965
314.184	3.06173
314.186	3.1377
314.316	2.98575
314.448	2.90978
314.581	2.83381
314.713	2.75783
314.845	2.68946
314.977	2.61349
315.109	2.53751
315.64	2.38557
316.172	2.31719
316.705	2.2716
317.904	2.24122
318.837	2.24881
319.239	2.31719
319.906	2.38557
320.441	2.45394
321.375	2.50712
322.309	2.52232
322.708	2.45394
323.106	2.37797
323.372	2.30199
323.637	2.23362
323.903	2.15764
324.168	2.08167
324.433	2.0057
324.699	1.92972
324.964	1.86135
325.23	1.78538
325.495	1.7094
325.627	1.63343
325.759	1.55745
326.025	1.48148
326.157	1.40551
326.289	1.32953
326.554	1.25356
326.686	1.18519
326.952	1.10921
327.217	1.03324
327.483	0.957265
327.748	0.881292
328.147	0.812915
328.679	0.744539
329.078	0.668566
329.743	0.60019
330.276	0.531814
330.808	0.463438
331.473	0.395062
332.139	0.334283
332.938	0.273504
333.737	0.212726
334.669	0.151947
335.735	0.106363
336.801	0.0683761
338.001	0.0379867
338.534	0.0151947
339.867	0.00759734
340.4	0.00759734
341.	0.