Absorption cross sections for diethyl ketone (3-propanone) measured by
Koch et al., J Quant Spectrosc Radiat Transfer 109, 2037-2044, 2008.
taken from the MPI-Mainz UV/VIS Spectral Atlas: http://satellite.mpic.de/spectral_atlas/
last checked: 13.01.2016

λ / nm	σ / cm2
202.2286    6.27e-20
203.0124    2.72e-20
203.7962    1.26e-20
204.5800    7.72e-21
205.3638    6.10e-21
206.1476    4.16e-21
206.9314    4.16e-21
207.7152    4.16e-21
208.4990    3.84e-21
209.2828    4.48e-21
210.0666    3.84e-21
210.8504    4.48e-21
211.6342    4.16e-21
212.4180    3.52e-21
213.2018    3.19e-21
213.9856    3.52e-21
214.7694    4.48e-21
215.5532    4.48e-21
216.3370    3.84e-21
217.1208    3.84e-21
217.9046    4.16e-21
218.6884    4.16e-21
219.4722    3.84e-21
220.2560    4.16e-21
221.0398    3.84e-21
221.8236    3.84e-21
222.6074    3.84e-21
223.3912    4.16e-21
224.1750    3.84e-21
224.9588    4.48e-21
225.7426    4.48e-21
226.5264    3.84e-21
227.3102    3.84e-21
228.0940    4.80e-21
228.8778    5.13e-21
229.6616    5.13e-21
230.4454    5.13e-21
231.2292    5.45e-21
232.0130    5.77e-21
232.7968    5.77e-21
233.5806    6.42e-21
234.3644    6.42e-21
235.1482    7.39e-21
235.9320    7.39e-21
236.7158    8.37e-21
237.4996    8.37e-21
238.2834    1.00e-20
239.0672    1.03e-20
239.8510    1.10e-20
240.6348    1.20e-20
241.4186    1.30e-20
242.2024    1.30e-20
242.9862    1.53e-20
243.7700    1.53e-20
244.5538    1.73e-20
245.3376    1.70e-20
246.1214    1.80e-20
246.9052    1.93e-20
247.6890    2.03e-20
248.4728    2.20e-20
249.2566    2.27e-20
250.0404    2.37e-20
250.8242    2.51e-20
251.6080    2.62e-20
252.3918    2.86e-20
253.1756    2.96e-20
253.9594    3.00e-20
254.7432    3.17e-20
255.5270    3.42e-20
256.3108    3.38e-20
257.0946    3.63e-20
257.8784    3.67e-20
258.6622    3.85e-20
259.4460    3.99e-20
260.2298    4.06e-20
261.0136    4.17e-20
261.7974    4.32e-20
262.5812    4.61e-20
263.3650    4.61e-20
264.1488    4.79e-20
264.9326    4.87e-20
265.7164    5.05e-20
266.5002    5.13e-20
267.2840    5.24e-20
268.0678    5.43e-20
268.8516    5.54e-20
269.6354    5.62e-20
270.4192    5.77e-20
271.2030    5.81e-20
271.9868    5.96e-20
272.7706    6.00e-20
273.5544    6.08e-20
274.3382    5.96e-20
275.1220    6.27e-20
275.9058    6.19e-20
276.6896    6.23e-20
277.4734    6.11e-20
278.2572    6.15e-20
279.0410    6.27e-20
279.8248    6.19e-20
280.6086    6.31e-20
281.3924    6.35e-20
282.1762    6.19e-20
282.9600    6.11e-20
283.7438    6.11e-20
284.5276    6.11e-20
285.3114    5.96e-20
286.0952    6.00e-20
286.8790    5.88e-20
287.6628    5.85e-20
288.4466    5.65e-20
289.2304    5.50e-20
290.0142    5.31e-20
290.7980    5.43e-20
291.5818    5.24e-20
292.3656    5.16e-20
293.1494    4.98e-20
293.9332    4.94e-20
294.7170    4.87e-20
295.5008    4.50e-20
296.2846    4.43e-20
297.0684    4.21e-20
297.8522    4.17e-20
298.6360    4.03e-20
299.4198    3.88e-20
300.2036    3.78e-20
300.9874    3.60e-20
301.7712    3.38e-20
302.5550    3.24e-20
303.3388    3.10e-20
304.1226    3.00e-20
304.9064    2.89e-20
305.6902    2.62e-20
306.4740    2.41e-20
307.2578    2.20e-20
308.0416    2.14e-20
308.8254    2.03e-20
309.6092    1.73e-20
310.3930    1.87e-20
311.1768    1.63e-20
311.9606    1.60e-20
312.7444    1.50e-20
313.5282    1.33e-20
314.3120    1.33e-20
315.0958    1.10e-20
315.8796    1.03e-20
316.6634    1.00e-20
317.4472    9.68e-21
318.2310    8.70e-21
319.0148    7.39e-21
319.7986    7.07e-21
320.5824    5.77e-21
321.3662    5.77e-21
322.1500    6.10e-21
322.9338    3.52e-21
323.7176    5.77e-21
324.5014    4.16e-21
325.2852    3.52e-21
326.0690    3.52e-21
